#"Step"	"Potential Energy (kJ/mole)"	"Kinetic Energy (kJ/mole)"	"Temperature (K)"	"Box Volume (nm^3)"	"Density (g/mL)"	"Speed (ns/day)"
104000	58367.8671875	10025.9962019	119.096172431	6750.0	0.00166053878234	0
108000	58311.5820312	10198.61154	121.146624641	6750.0	0.00166053878234	3.47e+03
112000	58496.125	10220.5969809	121.407783912	6750.0	0.00166053878234	3.47e+03
116000	58416.53125	10165.4101868	120.752234497	6750.0	0.00166053878234	3.47e+03
120000	58412.078125	10289.638561	122.227910687	6750.0	0.00166053878234	3.47e+03
124000	58409.609375	10065.4023325	119.564267493	6750.0	0.00166053878234	3.48e+03
128000	58426.125	10175.1897381	120.868403214	6750.0	0.00166053878234	3.48e+03
132000	58489.3515625	10169.2650918	120.798025899	6750.0	0.00166053878234	3.48e+03
136000	58375.0976562	10249.8180935	121.754893824	6750.0	0.00166053878234	3.48e+03
140000	58395.375	10183.1299202	120.96272255	6750.0	0.00166053878234	3.48e+03
144000	58403.34375	10185.2505744	120.987913243	6750.0	0.00166053878234	3.48e+03
148000	58390.6015625	10217.5920167	121.372088732	6750.0	0.00166053878234	3.48e+03
152000	58470.8710938	10289.148407	122.222088275	6750.0	0.00166053878234	3.48e+03
156000	58449.6757812	9910.438206	117.723489385	6750.0	0.00166053878234	3.48e+03
160000	58426.8867188	10274.2611566	122.045246543	6750.0	0.00166053878234	3.48e+03
164000	58365.1875	10315.0451263	122.529708595	6750.0	0.00166053878234	3.48e+03
168000	58389.5234375	10193.1938256	121.082269036	6750.0	0.00166053878234	3.48e+03
172000	58425.765625	10066.279865	119.574691472	6750.0	0.00166053878234	3.48e+03
176000	58449.4296875	10091.6359441	119.875889667	6750.0	0.00166053878234	3.48e+03
180000	58517.6328125	10152.3202726	120.596742848	6750.0	0.00166053878234	3.48e+03
184000	58456.5703125	10261.741001	121.896522907	6750.0	0.00166053878234	3.48e+03
188000	58520.4023438	10127.1820751	120.29813281	6750.0	0.00166053878234	3.48e+03
192000	58454.984375	10146.7155071	120.530165312	6750.0	0.00166053878234	3.48e+03
196000	58464.2578125	10272.0795475	122.019331782	6750.0	0.00166053878234	3.48e+03
200000	58433.5039062	9986.89550906	118.631705582	6750.0	0.00166053878234	3.48e+03
204000	58472.6445312	10121.2660499	120.227857903	6750.0	0.00166053878234	3.48e+03
208000	58514.5390625	10121.5088428	120.230741976	6750.0	0.00166053878234	3.48e+03
212000	58412.578125	10102.6766699	120.007039546	6750.0	0.00166053878234	3.48e+03
216000	58499.8828125	10112.1259864	120.119285492	6750.0	0.00166053878234	3.48e+03
220000	58377.0	10130.1266213	120.3331103	6750.0	0.00166053878234	3.48e+03
224000	58491.96875	10086.2304064	119.811678706	6750.0	0.00166053878234	3.48e+03
228000	58428.234375	10409.5100661	123.651832774	6750.0	0.00166053878234	3.48e+03
232000	58527.078125	10275.6718466	122.062003758	6750.0	0.00166053878234	3.48e+03
236000	58497.1601562	10210.9889375	121.293652491	6750.0	0.00166053878234	3.48e+03
240000	58454.046875	10131.457502	120.348919482	6750.0	0.00166053878234	3.48e+03
244000	58428.6875	10225.1345028	121.461683942	6750.0	0.00166053878234	3.48e+03
248000	58428.0546875	10201.0073018	121.175083265	6750.0	0.00166053878234	3.48e+03
252000	58506.65625	10214.1899278	121.331676213	6750.0	0.00166053878234	3.48e+03
256000	58305.2578125	10024.8410698	119.08245092	6750.0	0.00166053878234	3.48e+03
260000	58419.8242188	10432.6162805	123.926305419	6750.0	0.00166053878234	3.48e+03
264000	58406.6132812	10180.7492254	120.934442903	6750.0	0.00166053878234	3.48e+03
268000	58456.4765625	9958.38155037	118.292995765	6750.0	0.00166053878234	3.48e+03
272000	58497.5429688	10140.1905474	120.452657032	6750.0	0.00166053878234	3.48e+03
276000	58353.3203125	10288.0550503	122.209100579	6750.0	0.00166053878234	3.48e+03
280000	58504.5351562	9952.79481914	118.226632454	6750.0	0.00166053878234	3.48e+03
284000	58410.1992188	10041.1389468	119.276049115	6750.0	0.00166053878234	3.48e+03
288000	58398.0351562	10097.715084	119.948102172	6750.0	0.00166053878234	3.48e+03
292000	58434.0390625	10056.9910167	119.464351685	6750.0	0.00166053878234	3.48e+03
296000	58450.3242188	10061.7667916	119.52108186	6750.0	0.00166053878234	3.48e+03
300000	58430.8789062	10060.1653961	119.502059304	6750.0	0.00166053878234	3.48e+03
304000	58377.4375	9832.61528477	116.799051368	6750.0	0.00166053878234	3.48e+03
308000	58403.921875	9921.12817457	117.85047271	6750.0	0.00166053878234	3.48e+03
312000	58441.0546875	10121.1089454	120.2259917	6750.0	0.00166053878234	3.48e+03
316000	58405.859375	10104.3373339	120.026766137	6750.0	0.00166053878234	3.48e+03
320000	58433.1015625	10089.0308029	119.84494388	6750.0	0.00166053878234	3.48e+03
324000	58462.515625	10015.5022143	118.971517111	6750.0	0.00166053878234	3.48e+03
328000	58358.1953125	10108.1716754	120.072313271	6750.0	0.00166053878234	3.48e+03
332000	58334.703125	10083.9498696	119.784588809	6750.0	0.00166053878234	3.48e+03
336000	58496.7148438	10146.8438327	120.531689659	6750.0	0.00166053878234	3.48e+03
340000	58482.1640625	9964.94317848	118.37093962	6750.0	0.00166053878234	3.48e+03
344000	58440.3828125	10060.4409457	119.505332484	6750.0	0.00166053878234	3.48e+03
348000	58404.4921875	10164.2830892	120.738846001	6750.0	0.00166053878234	3.48e+03
352000	58560.921875	10069.6172125	119.614334944	6750.0	0.00166053878234	3.48e+03
356000	58430.4609375	10069.264594	119.610146282	6750.0	0.00166053878234	3.48e+03
360000	58425.6953125	10161.8786906	120.710284782	6750.0	0.00166053878234	3.48e+03
364000	58418.1640625	10217.3631225	121.369369759	6750.0	0.00166053878234	3.48e+03
368000	58473.1445312	10095.2709249	119.919068649	6750.0	0.00166053878234	3.48e+03
372000	58351.8945312	10069.5063562	119.613018112	6750.0	0.00166053878234	3.48e+03
376000	58381.1054688	10169.6951792	120.803134795	6750.0	0.00166053878234	3.48e+03
380000	58390.703125	10486.0374195	124.560881081	6750.0	0.00166053878234	3.48e+03
384000	58416.4179688	10293.5448293	122.27431222	6750.0	0.00166053878234	3.48e+03
388000	58411.8984375	10315.7882361	122.538535801	6750.0	0.00166053878234	3.48e+03
392000	58357.171875	10027.1232851	119.109560756	6750.0	0.00166053878234	3.48e+03
396000	58492.5234375	10048.6252818	119.36497732	6750.0	0.00166053878234	3.48e+03
400000	58407.6953125	10209.9211907	121.280969008	6750.0	0.00166053878234	3.48e+03
404000	58483.8125	10293.9182752	122.278748286	6750.0	0.00166053878234	3.48e+03
408000	58396.78125	10116.3225834	120.169135764	6750.0	0.00166053878234	3.48e+03
412000	58395.6640625	10123.1330498	120.250035503	6750.0	0.00166053878234	3.48e+03
416000	58336.6132812	10161.346299	120.703960642	6750.0	0.00166053878234	3.48e+03
420000	58459.2929688	10059.8545605	119.498366969	6750.0	0.00166053878234	3.48e+03
424000	58374.375	10113.0770097	120.130582448	6750.0	0.00166053878234	3.48e+03
428000	58412.4882812	10249.8769086	121.755592473	6750.0	0.00166053878234	3.48e+03
432000	58399.359375	10050.9895287	119.393061588	6750.0	0.00166053878234	3.48e+03
436000	58519.2539062	10099.2087728	119.965845308	6750.0	0.00166053878234	3.48e+03
440000	58377.1796875	10054.9751835	119.440406133	6750.0	0.00166053878234	3.48e+03
444000	58400.2929688	10148.1829564	120.547596757	6750.0	0.00166053878234	3.48e+03
448000	58404.03125	10104.331331	120.02669483	6750.0	0.00166053878234	3.48e+03
452000	58426.796875	10206.3452268	121.238491072	6750.0	0.00166053878234	3.48e+03
456000	58368.28125	10042.0002568	119.28628039	6750.0	0.00166053878234	3.48e+03
460000	58366.0234375	10029.8330912	119.14174983	6750.0	0.00166053878234	3.48e+03
464000	58439.75	9965.7086111	118.380031993	6750.0	0.00166053878234	3.48e+03
468000	58465.3046875	10235.5839947	121.585810708	6750.0	0.00166053878234	3.48e+03
472000	58410.7890625	10103.0300479	120.011237231	6750.0	0.00166053878234	3.48e+03
476000	58487.4804688	10001.6442825	118.806902383	6750.0	0.00166053878234	3.48e+03
480000	58421.1210938	10187.3490647	121.012840658	6750.0	0.00166053878234	3.48e+03
484000	58411.9609375	10169.343192	120.798953631	6750.0	0.00166053878234	3.48e+03
488000	58476.5859375	10193.6659908	121.087877763	6750.0	0.00166053878234	3.48e+03
492000	58477.390625	9984.38919479	118.601933734	6750.0	0.00166053878234	3.48e+03
496000	58332.6835938	10114.6932092	120.149780857	6750.0	0.00166053878234	3.48e+03
500000	58573.3398438	10051.6197608	119.400547948	6750.0	0.00166053878234	3.48e+03
504000	58398.078125	10091.8906998	119.878915844	6750.0	0.00166053878234	3.5e+03
508000	58380.8359375	9981.30447851	118.565291201	6750.0	0.00166053878234	3.52e+03
512000	58410.984375	10298.8914949	122.337823855	6750.0	0.00166053878234	3.54e+03
516000	58427.8476562	10182.8505512	120.959404	6750.0	0.00166053878234	3.56e+03
520000	58402.734375	10172.9406855	120.841687311	6750.0	0.00166053878234	3.58e+03
524000	58414.6679688	10117.9789748	120.188811602	6750.0	0.00166053878234	3.6e+03
528000	58365.03125	10121.1893606	120.226946931	6750.0	0.00166053878234	3.63e+03
532000	58466.5234375	10153.0999371	120.606004278	6750.0	0.00166053878234	3.65e+03
536000	58438.9765625	10159.9209375	120.687029148	6750.0	0.00166053878234	3.67e+03
540000	58412.3671875	10122.8694667	120.246904469	6750.0	0.00166053878234	3.69e+03
544000	58447.9882812	10194.4063731	121.096672568	6750.0	0.00166053878234	3.71e+03
548000	58365.6054688	10152.9496469	120.60421902	6750.0	0.00166053878234	3.73e+03
552000	58446.0859375	10240.0374771	121.638712454	6750.0	0.00166053878234	3.75e+03
556000	58403.953125	10237.3259671	121.60650314	6750.0	0.00166053878234	3.77e+03
560000	58501.2265625	10063.0060409	119.535802576	6750.0	0.00166053878234	3.79e+03
564000	58451.6484375	10131.8802974	120.353941757	6750.0	0.00166053878234	3.81e+03
568000	58449.7109375	10085.7734054	119.806250112	6750.0	0.00166053878234	3.83e+03
572000	58416.1289062	10060.7612223	119.509136967	6750.0	0.00166053878234	3.85e+03
576000	58490.6523438	10150.8968036	120.579833834	6750.0	0.00166053878234	3.87e+03
580000	58380.8789062	10062.208941	119.526334035	6750.0	0.00166053878234	3.89e+03
584000	58432.3359375	10218.717031	121.385452482	6750.0	0.00166053878234	3.9e+03
588000	58432.0234375	10006.4410457	118.863881872	6750.0	0.00166053878234	3.92e+03
592000	58500.0273438	10271.253789	122.009522815	6750.0	0.00166053878234	3.94e+03
596000	58421.4492188	10128.7680927	120.316972696	6750.0	0.00166053878234	3.96e+03
600000	58409.7382812	10119.8259026	120.210750772	6750.0	0.00166053878234	3.98e+03
604000	58323.140625	10066.2539978	119.574384202	6750.0	0.00166053878234	4e+03
608000	58493.15625	10114.3274039	120.145435551	6750.0	0.00166053878234	4.02e+03
612000	58360.28125	10175.9717164	120.877692129	6750.0	0.00166053878234	4.03e+03
616000	58413.296875	10298.9469111	122.33848213	6750.0	0.00166053878234	4.05e+03
620000	58422.1171875	10165.737326	120.756120497	6750.0	0.00166053878234	4.07e+03
624000	58455.4375	10150.7534999	120.578131567	6750.0	0.00166053878234	4.09e+03
628000	58414.78125	10098.9164005	119.962372295	6750.0	0.00166053878234	4.11e+03
632000	58362.9609375	10066.4304809	119.576480598	6750.0	0.00166053878234	4.12e+03
636000	58404.390625	10172.0460623	120.831060317	6750.0	0.00166053878234	4.14e+03
640000	58482.796875	10045.5405475	119.328334573	6750.0	0.00166053878234	4.16e+03
644000	58442.4101562	10138.4716833	120.432239097	6750.0	0.00166053878234	4.17e+03
648000	58416.1953125	10162.467687	120.717281315	6750.0	0.00166053878234	4.19e+03
652000	58461.4765625	10216.228593	121.355892981	6750.0	0.00166053878234	4.21e+03
656000	58363.8203125	10247.6528963	121.729174016	6750.0	0.00166053878234	4.23e+03
660000	58469.0507812	10180.2796764	120.928865253	6750.0	0.00166053878234	4.24e+03
664000	58490.1875	10218.5813965	121.383841315	6750.0	0.00166053878234	4.26e+03
668000	58520.4296875	10066.9699703	119.582889051	6750.0	0.00166053878234	4.28e+03
672000	58383.8125	10209.8632533	121.280280784	6750.0	0.00166053878234	4.29e+03
676000	58386.71875	10063.1484952	119.537494754	6750.0	0.00166053878234	4.31e+03
680000	58487.28125	10284.4331249	122.16607668	6750.0	0.00166053878234	4.32e+03
684000	58506.703125	10010.3294376	118.910071058	6750.0	0.00166053878234	4.34e+03
688000	58420.3710938	10012.0668777	118.930709652	6750.0	0.00166053878234	4.36e+03
692000	58386.3046875	10324.3143056	122.639814739	6750.0	0.00166053878234	4.37e+03
696000	58451.96875	10159.6041295	120.683265868	6750.0	0.00166053878234	4.39e+03
700000	58494.2070312	10118.7418631	120.197873751	6750.0	0.00166053878234	4.4e+03
704000	58504.7617188	10090.2196135	119.859065449	6750.0	0.00166053878234	4.42e+03
708000	58480.9023438	10111.254862	120.108937634	6750.0	0.00166053878234	4.43e+03
712000	58521.1054688	10354.9448149	123.003666504	6750.0	0.00166053878234	4.45e+03
716000	58435.6171875	10039.2777564	119.253940524	6750.0	0.00166053878234	4.47e+03
720000	58443.15625	10069.4065582	119.611832638	6750.0	0.00166053878234	4.48e+03
724000	58488.171875	10013.7178545	118.95032117	6750.0	0.00166053878234	4.5e+03
728000	58408.6875	10120.0331821	120.21321299	6750.0	0.00166053878234	4.51e+03
732000	58454.9570312	10210.1991264	121.284270533	6750.0	0.00166053878234	4.53e+03
736000	58492.4804688	10109.0005839	120.082159657	6750.0	0.00166053878234	4.54e+03
740000	58422.0234375	10008.5977624	118.889500942	6750.0	0.00166053878234	4.55e+03
744000	58488.140625	10171.9025168	120.829355178	6750.0	0.00166053878234	4.57e+03
748000	58467.6835938	10144.8042411	120.507461887	6750.0	0.00166053878234	4.58e+03
752000	58580.6484375	10182.7887749	120.958670175	6750.0	0.00166053878234	4.6e+03
756000	58427.3945312	10111.0826073	120.106891466	6750.0	0.00166053878234	4.61e+03
760000	58399.21875	10168.7005859	120.791320282	6750.0	0.00166053878234	4.63e+03
764000	58443.6328125	10182.3102115	120.952985446	6750.0	0.00166053878234	4.64e+03
768000	58497.7929688	9987.10960355	118.634248754	6750.0	0.00166053878234	4.66e+03
772000	58469.5664062	10178.92439	120.912766163	6750.0	0.00166053878234	4.67e+03
776000	58467.4296875	9998.3760394	118.768079783	6750.0	0.00166053878234	4.68e+03
780000	58442.921875	10160.097083	120.689121533	6750.0	0.00166053878234	4.7e+03
784000	58419.09375	10242.4627697	121.667521867	6750.0	0.00166053878234	4.71e+03
788000	58328.46875	10103.8209259	120.020631862	6750.0	0.00166053878234	4.72e+03
792000	58426.3164062	10091.0901892	119.869406789	6750.0	0.00166053878234	4.74e+03
796000	58435.125	10138.2502142	120.429608324	6750.0	0.00166053878234	4.75e+03
800000	58470.0234375	10120.0093508	120.212929904	6750.0	0.00166053878234	4.77e+03
804000	58444.046875	10243.3309571	121.677834837	6750.0	0.00166053878234	4.78e+03
808000	58429.9921875	10003.8512503	118.833118374	6750.0	0.00166053878234	4.79e+03
812000	58476.4023438	10189.7192923	121.040995968	6750.0	0.00166053878234	4.81e+03
816000	58494.546875	10122.5516127	120.243128765	6750.0	0.00166053878234	4.82e+03
820000	58460.5078125	10238.8007804	121.624022059	6750.0	0.00166053878234	4.83e+03
824000	58549.7382812	10178.9040455	120.912524496	6750.0	0.00166053878234	4.84e+03
828000	58492.3515625	10203.4103939	121.203628965	6750.0	0.00166053878234	4.86e+03
832000	58507.3046875	10023.1562112	119.062436927	6750.0	0.00166053878234	4.87e+03
836000	58422.5703125	10072.687375	119.650804598	6750.0	0.00166053878234	4.88e+03
840000	58372.890625	10066.4571465	119.576797352	6750.0	0.00166053878234	4.9e+03
844000	58456.2890625	10195.8858049	121.11424635	6750.0	0.00166053878234	4.91e+03
848000	58505.984375	10258.5779972	121.858950416	6750.0	0.00166053878234	4.92e+03
852000	58437.3125	10168.3798887	120.787510805	6750.0	0.00166053878234	4.93e+03
856000	58452.875	10027.4166719	119.11304582	6750.0	0.00166053878234	4.95e+03
860000	58411.7695312	9987.21735699	118.635528729	6750.0	0.00166053878234	4.96e+03
864000	58479.1914062	10228.7728554	121.504902976	6750.0	0.00166053878234	4.97e+03
868000	58466.1484375	9980.92264586	118.560755511	6750.0	0.00166053878234	4.98e+03
872000	58464.953125	10256.9518971	121.839634402	6750.0	0.00166053878234	4.99e+03
876000	58517.125	10165.9879992	120.759098178	6750.0	0.00166053878234	5.01e+03
880000	58419.4609375	10169.6719392	120.802858732	6750.0	0.00166053878234	5.02e+03
884000	58407.4765625	9971.71044787	118.451326233	6750.0	0.00166053878234	5.03e+03
888000	58457.828125	10162.1007832	120.712922962	6750.0	0.00166053878234	5.04e+03
892000	58384.1640625	10132.1599438	120.357263603	6750.0	0.00166053878234	5.05e+03
896000	58437.453125	10167.8917727	120.781712603	6750.0	0.00166053878234	5.07e+03
900000	58464.078125	9990.75983226	118.677608861	6750.0	0.00166053878234	5.08e+03
904000	58484.9609375	10268.3614307	121.97516525	6750.0	0.00166053878234	5.09e+03
908000	58371.90625	10190.739839	121.053118774	6750.0	0.00166053878234	5.1e+03
912000	58364.3164062	10073.0146083	119.654691716	6750.0	0.00166053878234	5.11e+03
916000	58402.1640625	10162.6586708	120.719549962	6750.0	0.00166053878234	5.12e+03
920000	58334.0039062	10326.7416803	122.668648884	6750.0	0.00166053878234	5.14e+03
924000	58401.0703125	10117.6111926	120.184442814	6750.0	0.00166053878234	5.15e+03
928000	58353.9570312	10013.6527674	118.949548018	6750.0	0.00166053878234	5.16e+03
932000	58492.0859375	10138.6137258	120.433926383	6750.0	0.00166053878234	5.17e+03
936000	58426.4375	10342.3508633	122.854066264	6750.0	0.00166053878234	5.18e+03
940000	58406.7890625	10194.1649225	121.093804441	6750.0	0.00166053878234	5.19e+03
944000	58394.2265625	10202.6400216	121.194477914	6750.0	0.00166053878234	5.2e+03
948000	58488.3242188	10176.3652709	120.88236706	6750.0	0.00166053878234	5.21e+03
952000	58383.484375	10158.7644617	120.673291675	6750.0	0.00166053878234	5.22e+03
956000	58552.328125	10259.7198321	121.872513974	6750.0	0.00166053878234	5.23e+03
960000	58337.6914062	10239.554694	121.632977601	6750.0	0.00166053878234	5.25e+03
964000	58324.5195312	10243.711583	121.682356192	6750.0	0.00166053878234	5.26e+03
968000	58423.2695312	10163.7988099	120.733093374	6750.0	0.00166053878234	5.27e+03
972000	58504.5703125	9931.22759068	117.970441018	6750.0	0.00166053878234	5.28e+03
976000	58388.3007812	9982.59683953	118.580642817	6750.0	0.00166053878234	5.29e+03
980000	58437.7929688	10067.6520385	119.590991159	6750.0	0.00166053878234	5.3e+03
984000	58459.40625	10109.3877955	120.086759242	6750.0	0.00166053878234	5.31e+03
988000	58447.2265625	9967.5907164	118.402389027	6750.0	0.00166053878234	5.32e+03
992000	58389.5742188	10172.9024461	120.841233075	6750.0	0.00166053878234	5.33e+03
996000	58499.96875	10163.2414671	120.726472846	6750.0	0.00166053878234	5.34e+03
1000000	58378.140625	10233.4490485	121.560450243	6750.0	0.00166053878234	5.35e+03
1004000	58486.8046875	10008.7714351	118.891563955	6750.0	0.00166053878234	5.36e+03
1008000	58424.9726562	10176.0983913	120.879196867	6750.0	0.00166053878234	5.37e+03
1012000	58398.4414062	9977.32570665	118.518028416	6750.0	0.00166053878234	5.38e+03
1016000	58365.6289062	10062.8713521	119.534202643	6750.0	0.00166053878234	5.39e+03
1020000	58375.3789062	10232.7597394	121.552262122	6750.0	0.00166053878234	5.4e+03
1024000	58533.6679688	10063.3744849	119.540179225	6750.0	0.00166053878234	5.41e+03
1028000	58365.4570312	10085.6504693	119.804789787	6750.0	0.00166053878234	5.42e+03
1032000	58399.15625	10157.4071125	120.657168082	6750.0	0.00166053878234	5.43e+03
1036000	58449.8359375	10291.2882796	122.24750726	6750.0	0.00166053878234	5.44e+03
1040000	58436.625	10154.3110611	120.620390902	6750.0	0.00166053878234	5.45e+03
1044000	58470.6171875	10037.8196151	119.236619647	6750.0	0.00166053878234	5.46e+03
1048000	58420.734375	10050.1115007	119.382631724	6750.0	0.00166053878234	5.47e+03
1052000	58356.4921875	10153.2434173	120.607708642	6750.0	0.00166053878234	5.48e+03
1056000	58401.8984375	10067.5261418	119.589495665	6750.0	0.00166053878234	5.49e+03
1060000	58385.0976562	10149.4411323	120.562542298	6750.0	0.00166053878234	5.5e+03
1064000	58301.4804688	9981.76156307	118.570720788	6750.0	0.00166053878234	5.51e+03
1068000	58491.9140625	10102.1038094	120.000234687	6750.0	0.00166053878234	5.52e+03
1072000	58413.9296875	10224.3417504	121.452267043	6750.0	0.00166053878234	5.53e+03
1076000	58446.6289062	10113.8116731	120.139309321	6750.0	0.00166053878234	5.54e+03
1080000	58339.1015625	10195.5645013	121.110429669	6750.0	0.00166053878234	5.54e+03
1084000	58482.734375	10334.1692882	122.756879486	6750.0	0.00166053878234	5.55e+03
1088000	58425.109375	9921.31766216	117.852723583	6750.0	0.00166053878234	5.56e+03
1092000	58420.90625	10173.018071	120.842606552	6750.0	0.00166053878234	5.57e+03
1096000	58357.25	9953.73692441	118.237823475	6750.0	0.00166053878234	5.58e+03
1100000	58439.7265625	10067.671679	119.591224464	6750.0	0.00166053878234	5.59e+03
